LabVIEW Measurement	
Writer_Version	2
Reader_Version	2
Separator	Tab
Decimal_Separator	.
Multi_Headings	No
X_Columns	No
Time_Pref	Absolute
Operator	mechlab
Description	Data file
Date	2024/03/15
Time	09:21:18.0500001907348632813
***End_of_Header***	
	
Channels	9									
Samples	1	1	1	1	1	1	1	1	1	
Date	2024/03/15	2024/03/15	2024/03/15	2024/03/15	2024/03/15	2024/03/15	2024/03/15	2024/03/15	2024/03/15	
Time	09:21:18.0500001907348632813	09:21:18.0689997673034667969	09:21:18.0890002250671386719	09:21:18.1100001335144042969	09:21:18.1279997825622558594	09:21:18.1449999809265136719	09:21:18.1640000343322753906	09:21:18.1810002326965332031	09:21:18.1100001335144042969	
X_Dimension	Time	Time	Time	Time	Time	Time	Time	Time	Time	
X0	0.0000000000000000E+0	0.0000000000000000E+0	0.0000000000000000E+0	0.0000000000000000E+0	0.0000000000000000E+0	0.0000000000000000E+0	0.0000000000000000E+0	0.0000000000000000E+0	0.0000000000000000E+0	
Delta_X	1.000000	1.000000	1.000000	1.000000	1.000000	1.000000	1.000000	1.000000	1.000000	
***End_of_Header***										
X_Value	Untitled	Untitled 1	Untitled 2	Untitled 3	Untitled 4	Untitled 5	Untitled 6	Untitled 7	Untitled 8	Comment
	0.000000	-13.744876	1.606960	88.636590	0.008389	-0.001724	-0.004825	0.004366	-24.415410
	1.131000	-16.031273	1.589275	88.618810	0.008389	-0.001725	-0.004824	0.004366	-24.433190
	2.131000	-12.837831	1.613910	88.644185	0.008389	-0.001724	-0.004824	0.004367	-24.407815
	3.131000	-10.095228	1.620539	88.637570	0.008389	-0.001725	-0.004824	0.004366	-24.414430
	4.131000	-10.046924	1.592978	88.635295	0.008390	-0.001724	-0.004824	0.004367	-24.416705
	5.131000	-13.154492	1.619251	88.636030	0.008388	-0.001724	-0.004824	0.004367	-24.415970
	6.131000	-13.755610	1.606732	88.624655	0.008389	-0.001724	-0.004824	0.004367	-24.427345
	7.131000	-8.023516	1.592053	88.627315	0.008390	-0.001724	-0.004824	0.004367	-24.424685
	8.131000	-14.743162	1.599084	88.617340	0.008389	-0.001724	-0.004824	0.004366	-24.434660
	9.131000	-16.331833	1.610113	88.632565	0.008389	-0.001724	-0.004824	0.004366	-24.419435
	10.131000	-7.969845	1.612649	88.611705	0.008390	-0.001724	-0.004824	0.004366	-24.440295
	11.131000	-12.054230	1.608181	88.605720	0.008390	-0.001724	-0.004824	0.004366	-24.446280
	12.131000	-8.533393	1.591086	88.613875	0.008390	-0.001724	-0.004824	0.004366	-24.438125
	13.131000	-6.579758	1.611804	88.614435	0.008390	-0.001724	-0.004823	0.004367	-24.437565
	14.131000	-9.268690	1.600224	88.608100	0.008390	-0.001724	-0.004824	0.004366	-24.443900
	15.131000	-10.529966	1.596776	88.602220	0.008390	-0.001724	-0.004823	0.004366	-24.449780
	16.131000	-12.102534	1.599177	88.614995	0.008389	-0.001724	-0.004823	0.004367	-24.437005
	17.131000	-9.333096	1.596709	88.608205	0.008389	-0.001724	-0.004823	0.004367	-24.443795
	18.131000	-12.209877	1.597688	88.598090	0.008390	-0.001724	-0.004823	0.004367	-24.453910
	19.131000	-16.042008	1.602425	88.606280	0.008390	-0.001723	-0.004823	0.004367	-24.445720
	20.131000	-17.539437	1.601633	88.600540	0.008390	-0.001724	-0.004823	0.004368	-24.451460
	21.131000	-20.362547	1.606222	88.603410	0.008390	-0.001724	-0.004823	0.004368	-24.448590
	22.131000	-17.448196	1.589114	88.606840	0.008391	-0.001724	-0.004822	0.004368	-24.445160
	23.131000	-21.360833	1.594589	88.601170	0.008390	-0.001724	-0.004822	0.004368	-24.450830
	24.131000	-13.921991	1.597433	88.601205	0.008390	-0.001724	-0.004822	0.004368	-24.450795
	25.131000	-10.851993	1.603458	88.601310	0.008390	-0.001724	-0.004822	0.004368	-24.450690
	26.131000	-16.771937	1.612850	88.600820	0.008390	-0.001723	-0.004822	0.004368	-24.451180
	27.131000	-19.509173	1.597326	88.604775	0.008390	-0.001724	-0.004821	0.004368	-24.447225
	28.131000	-16.412340	1.604840	88.603165	0.008391	-0.001723	-0.004822	0.004368	-24.448835
	29.131000	-8.329442	1.596480	88.602675	0.008391	-0.001723	-0.004822	0.004368	-24.449325
	30.131000	-4.878378	1.602492	88.604320	0.008390	-0.001723	-0.004822	0.004368	-24.447680
	31.131000	-13.567761	1.597057	88.600575	0.008391	-0.001723	-0.004822	0.004368	-24.451425
	32.131000	-8.205998	1.593569	88.600575	0.008391	-0.001723	-0.004821	0.004368	-24.451425
	33.131000	-13.938093	1.587034	88.600260	0.008391	-0.001723	-0.004821	0.004368	-24.451740
	34.131000	-10.513864	1.604303	88.601835	0.008390	-0.001724	-0.004821	0.004368	-24.450165
	35.131000	-8.973498	1.596561	88.600505	0.008391	-0.001723	-0.004821	0.004368	-24.451495
	36.131000	-14.684124	1.586122	88.602535	0.008391	-0.001723	-0.004821	0.004368	-24.449465
	37.131000	-15.258407	1.607161	88.598370	0.008390	-0.001723	-0.004821	0.004368	-24.453630
	38.131000	-8.377747	1.604531	88.601240	0.008391	-0.001724	-0.004821	0.004369	-24.450760
	39.131000	-12.526538	1.606691	88.600015	0.008390	-0.001724	-0.004821	0.004369	-24.451985
	40.131000	-16.734367	1.598144	88.602115	0.008391	-0.001724	-0.004821	0.004368	-24.449885
	41.131000	-11.254528	1.598963	88.600050	0.008390	-0.001723	-0.004821	0.004369	-24.451950
	42.131000	-10.519231	1.603552	88.601660	0.008390	-0.001724	-0.004821	0.004368	-24.450340
	43.131000	-10.562168	1.617520	88.600785	0.008391	-0.001724	-0.004821	0.004368	-24.451215
	44.131000	-15.779018	1.588604	88.603795	0.008391	-0.001723	-0.004821	0.004368	-24.448205
